# Data correspond to the voltage measured by the oscilloscope [mv]
# total time = 43.122 s
0.842
47.80
57.90
60.30
61.70
61.70
59.30
57.00
57.10
57.70
19.50
49.00
58.50
64.00
63.00
59.80
55.90
60.50
63.50
65.40
62.40
64.50
62.90
62.20
55.40
61.60
61.50
59.90
60.40
58.10
58.30
62.90
61.50
59.00
60.60
62.30
61.50
61.20
53.10
54.20
54.50
56.00
57.20
53.40
57.40
56.00
53.30
54.10
54.60
51.90
53.60
54.30
51.40
54.00
61.90
58.30
56.90
58.40
57.90
55.20
-2.28
44.50
43.20
49.70
51.00
55.90
52.70
51.70
51.80
47.40
48.30
49.00
47.80
48.20
43.70
39.20
35.50
36.70
37.70
40.60
36.10
26.80
35.80
38.80
30.30
27.70
0.426
