# Data correspond to the voltage measured by the oscilloscope [mv]
# total time = 46.038 s
0.515
46.90
55.70
56.10
53.30
53.90
56.40
7.67
49.60
55.10
50.50
52.50
55.20
55.20
54.30
45.50
58.50
51.40
55.60
56.10
55.20
54.10
53.10
53.20
56.00
55.40
30.70
48.90
56.10
56.20
55.00
55.90
56.80
57.00
56.30
57.80
58.70
55.80
54.80
56.00
44.50
60.30
62.50
59.20
60.20
59.70
58.50
55.10
54.50
57.40
57.80
54.70
56.10
54.90
56.10
55.00
50.20
55.20
55.20
50.90
49.80
53.80
54.30
54.70
53.60
51.40
51.30
54.40
48.00
49.90
34.90
53.60
49.90
49.40
50.20
46.00
45.40
44.70
41.20
37.80
34.70
34.20
31.00
37.70
32.10
35.30
28.20
37.20
34.50
34.00
19.60
10.80
0.599
